#C:\Users\SAXSpace\Documents\SAXSpace\TobiZech\170714\data\calib\01719_GC_lQ_averaged_corrected.tif: Q-Space Scan
#Q (Inverse Nanometres)
#Intensity
#        100
# 5.3192381E-02  0.0000000E+00
 1.5957715E-01  8.0611603E+01
 2.6596192E-01  7.5998604E+01
 3.7234667E-01  7.2243507E+01
 4.7873142E-01  7.0477997E+01
 5.8511621E-01  6.9477989E+01
 6.9150096E-01  6.8505028E+01
 7.9788572E-01  6.6960960E+01
 9.0427047E-01  6.4237526E+01
 1.0106553E+00  6.0084221E+01
 1.1170400E+00  5.5029339E+01
 1.2234248E+00  4.9369591E+01
 1.3298095E+00  4.3711662E+01
 1.4361943E+00  3.8237701E+01
 1.5425791E+00  3.3067432E+01
 1.6489638E+00  2.8287527E+01
 1.7553486E+00  2.4248280E+01
 1.8617333E+00  2.0593002E+01
 1.9681181E+00  1.7547331E+01
 2.0745029E+00  1.4957564E+01
 2.1808877E+00  1.2766190E+01
 2.2872725E+00  1.0881052E+01
 2.3936572E+00  9.3789253E+00
 2.5000420E+00  8.1322660E+00
 2.6064267E+00  7.0264621E+00
 2.7128115E+00  6.1506481E+00
 2.8191962E+00  5.3862014E+00
 2.9255810E+00  4.8059468E+00
 3.0319657E+00  4.2418747E+00
 3.1383505E+00  3.7298720E+00
 3.2447352E+00  3.3741806E+00
 3.3511200E+00  3.0176969E+00
 3.4575047E+00  2.7245591E+00
 3.5638895E+00  2.4995751E+00
 3.6702743E+00  2.2188168E+00
 3.7766590E+00  2.0304818E+00
 3.8830438E+00  1.8791380E+00
 3.9894285E+00  1.7076343E+00
 4.0958133E+00  1.5580590E+00
 4.2021980E+00  1.4270701E+00
 4.3085828E+00  1.3056146E+00
 4.4149675E+00  1.2155962E+00
 4.5213523E+00  1.1210698E+00
 4.6277370E+00  1.0320140E+00
 4.7341218E+00  9.6698958E-01
 4.8405066E+00  8.8998049E-01
 4.9468913E+00  8.4106046E-01
 5.0532761E+00  7.7329987E-01
 5.1596608E+00  7.3911136E-01
 5.2660456E+00  6.8191916E-01
 5.3724303E+00  6.2778133E-01
 5.4788151E+00  6.0904008E-01
 5.5851998E+00  5.6143755E-01
 5.6915846E+00  5.2646154E-01
 5.7979693E+00  4.9554142E-01
 5.9043541E+00  4.8282820E-01
 6.0107388E+00  4.4878373E-01
 6.1171236E+00  4.3842155E-01
 6.2235084E+00  4.0331206E-01
 6.3298931E+00  3.9175233E-01
 6.4362779E+00  3.6191931E-01
 6.5426626E+00  3.4001964E-01
 6.6490474E+00  3.3587718E-01
 6.7554321E+00  3.2280669E-01
 6.8618174E+00  3.1536824E-01
 6.9682021E+00  2.9676005E-01
 7.0745869E+00  2.9185387E-01
 7.1809716E+00  2.7646613E-01
 7.2873564E+00  2.6504442E-01
 7.3937411E+00  2.4600272E-01
 7.5001259E+00  2.4260196E-01
 7.6065106E+00  2.4789172E-01
 7.7128954E+00  2.2762044E-01
 7.8192801E+00  2.1583527E-01
 7.9256649E+00  2.1302953E-01
 8.0320492E+00  2.0406106E-01
 8.1384344E+00  2.0223570E-01
 8.2448187E+00  1.9296007E-01
 8.3512039E+00  1.9084142E-01
 8.4575882E+00  1.8184739E-01
 8.5639734E+00  1.8153039E-01
 8.6703577E+00  1.7928819E-01
 8.7767429E+00  1.7700778E-01
 8.8831272E+00  1.5975779E-01
 8.9895124E+00  1.6163193E-01
 9.0958967E+00  1.6118880E-01
 9.2022820E+00  1.5891634E-01
 9.3086662E+00  1.5410337E-01
 9.4150515E+00  1.5447856E-01
 9.5214357E+00  1.5036854E-01
 9.6278210E+00  1.4929685E-01
 9.7342052E+00  1.4847061E-01
 9.8405905E+00  1.3963036E-01
 9.9469748E+00  1.4769498E-01
 1.0053360E+01  1.3826099E-01
 1.0159744E+01  1.3646986E-01
 1.0266129E+01  1.2902907E-01
 1.0372515E+01  1.3397926E-01
 1.0478899E+01  1.3299522E-01
 1.0585284E+01  1.4495085E-01
