#C:\Users\SAXSpace\Documents\SAXSpace\TobiZech\170714\data\01745_H2O_lQ_308mm_averaged_corrected.tif: Q-Space Scan
#Q (Inverse Nanometres)
#Intensity
#        100
# 5.3192381E-02  0.0000000E+00
 1.5957715E-01  1.3267119E+00
 2.6596192E-01  4.1367808E-01
 3.7234667E-01  2.0988065E-01
 4.7873142E-01  1.4115980E-01
 5.8511621E-01  1.1345872E-01
 6.9150096E-01  1.0226493E-01
 7.9788572E-01  9.8408528E-02
 9.0427047E-01  9.3903743E-02
 1.0106553E+00  9.1265514E-02
 1.1170400E+00  9.0960912E-02
 1.2234248E+00  9.0133436E-02
 1.3298095E+00  8.7683640E-02
 1.4361943E+00  8.8192090E-02
 1.5425791E+00  8.7127320E-02
 1.6489638E+00  8.5684769E-02
 1.7553486E+00  8.6288601E-02
 1.8617333E+00  8.8319436E-02
 1.9681181E+00  8.8947348E-02
 2.0745029E+00  8.7393746E-02
 2.1808877E+00  8.7975599E-02
 2.2872725E+00  8.7939359E-02
 2.3936572E+00  8.8322304E-02
 2.5000420E+00  8.9576699E-02
 2.6064267E+00  8.8938698E-02
 2.7128115E+00  8.7788872E-02
 2.8191962E+00  8.7951131E-02
 2.9255810E+00  8.8124961E-02
 3.0319657E+00  8.8923149E-02
 3.1383505E+00  8.8458113E-02
 3.2447352E+00  8.9507230E-02
 3.3511200E+00  8.9493945E-02
 3.4575047E+00  8.6791724E-02
 3.5638895E+00  8.8726290E-02
 3.6702743E+00  8.6651728E-02
 3.7766590E+00  8.6701237E-02
 3.8830438E+00  8.9280412E-02
 3.9894285E+00  9.0117432E-02
 4.0958133E+00  8.8939250E-02
 4.2021980E+00  8.8719010E-02
 4.3085828E+00  8.9892156E-02
 4.4149675E+00  9.1029994E-02
 4.5213523E+00  9.1776840E-02
 4.6277370E+00  9.1243215E-02
 4.7341218E+00  9.2243046E-02
 4.8405066E+00  9.2355423E-02
 4.9468913E+00  9.2271127E-02
 5.0532761E+00  9.1492154E-02
 5.1596608E+00  9.2382878E-02
 5.2660456E+00  9.3769476E-02
 5.3724303E+00  9.5222555E-02
 5.4788151E+00  9.6601389E-02
 5.5851998E+00  9.6844025E-02
 5.6915846E+00  9.5399760E-02
 5.7979693E+00  9.6473694E-02
 5.9043541E+00  9.7914733E-02
 6.0107388E+00  9.6801095E-02
 6.1171236E+00  1.0007603E-01
 6.2235084E+00  1.0118295E-01
 6.3298931E+00  1.0122000E-01
 6.4362779E+00  1.0317348E-01
 6.5426626E+00  1.0381815E-01
 6.6490474E+00  1.0392539E-01
 6.7554321E+00  1.0638690E-01
 6.8618174E+00  1.0512464E-01
 6.9682021E+00  1.0616438E-01
 7.0745869E+00  1.0626329E-01
 7.1809716E+00  1.0875770E-01
 7.2873564E+00  1.0943611E-01
 7.3937411E+00  1.0935918E-01
 7.5001259E+00  1.1094279E-01
 7.6065106E+00  1.0984001E-01
 7.7128954E+00  1.1359981E-01
 7.8192801E+00  1.1291453E-01
 7.9256649E+00  1.1477517E-01
 8.0320492E+00  1.1446837E-01
 8.1384344E+00  1.1483933E-01
 8.2448187E+00  1.1912285E-01
 8.3512039E+00  1.1744084E-01
 8.4575882E+00  1.1975078E-01
 8.5639734E+00  1.2037579E-01
 8.6703577E+00  1.2157592E-01
 8.7767429E+00  1.2320144E-01
 8.8831272E+00  1.2448873E-01
 8.9895124E+00  1.2428627E-01
 9.0958967E+00  1.2579198E-01
 9.2022820E+00  1.2950321E-01
 9.3086662E+00  1.2572838E-01
 9.4150515E+00  1.3007446E-01
 9.5214357E+00  1.2995458E-01
 9.6278210E+00  1.3235550E-01
 9.7342052E+00  1.3236831E-01
 9.8405905E+00  1.3158126E-01
 9.9469748E+00  1.3493899E-01
 1.0053360E+01  1.3785271E-01
 1.0159744E+01  1.3767181E-01
 1.0266129E+01  1.4142425E-01
 1.0372515E+01  1.4495194E-01
 1.0478899E+01  1.5023951E-01
 1.0585284E+01  1.6119786E-01
